  STEP   TOTAL TIME             LOCATION OF OBSERVATION POINTS (K,I,J)
                     14  16   6    14  16  12    14  22  12    14  10  12
     1    0.0000        0.0000        0.0000        0.0000        0.0000    
     2    1.0124       0.19485       1.19619E-06    0.0000        0.0000    
     3    2.0161       0.34804       9.36625E-06   1.51028E-11   2.33678E-10
     4    2.0548       0.35387       9.71990E-06   1.60326E-11   2.47550E-10
     5    4.0548       0.56403       1.57099E-04   4.74378E-09   4.94065E-08
     6    5.0548       0.65190       2.99440E-04   1.38321E-08   1.20310E-07
     7    6.0548       0.72644       5.42003E-04   3.36062E-08   2.70086E-07
     8    7.0548       0.79031       9.29704E-04   7.38619E-08   5.62047E-07
     9    8.0548       0.84553       1.51327E-03   1.50793E-07   1.09732E-06
    10    9.0548       0.89366       2.34432E-03   2.89761E-07   2.02640E-06
    11    10.055       0.93591       3.46998E-03   5.26706E-07   3.55267E-06
    12    11.055       0.97326       4.92948E-03   9.15450E-07   5.96217E-06
    13    12.055        1.0065       6.75121E-03   1.52763E-06   9.61364E-06
    14    13.055        1.0360       8.95191E-03   2.45641E-06   1.49467E-05
    15    14.055        1.0624       1.15371E-02   3.81885E-06   2.24815E-05
    16    15.055        1.0861       1.45022E-02   5.75754E-06   3.28153E-05
    17    16.055        1.1076       1.78344E-02   8.44161E-06   4.66146E-05
    18    17.055        1.1272       2.15143E-02   1.20667E-05   6.46066E-05
    19    18.055        1.1451       2.55177E-02   1.68543E-05   8.75666E-05
    20    19.055        1.1615       2.98172E-02   2.30502E-05   1.16305E-04
    21    20.055        1.1767       3.43836E-02   3.09225E-05   1.51652E-04
    22    21.055        1.1907       3.91869E-02   4.07587E-05   1.94447E-04
    23    22.055        1.2037       4.41974E-02   5.28623E-05   2.45523E-04
    24    23.055        1.2158       4.93862E-02   6.75500E-05   3.05693E-04
    25    24.055        1.2271       5.47258E-02   8.51474E-05   3.75739E-04
    26    25.055        1.2377       6.01903E-02   1.05986E-04   4.56406E-04
    27    26.055        1.2476       6.57555E-02   1.30398E-04   5.48389E-04
    28    27.055        1.2569       7.13995E-02   1.58717E-04   6.52328E-04
    29    28.055        1.2657       7.71021E-02   1.91271E-04   7.68807E-04
    30    29.055        1.2739       8.28451E-02   2.28381E-04   8.98354E-04
    31    30.055        1.2817       8.86123E-02   2.70359E-04   1.04143E-03
    32    31.055        1.2891       9.43889E-02   3.17504E-04   1.19843E-03
    33    32.105        1.2964       0.10045       3.72954E-04   1.37879E-03
    34    33.105        1.3030       0.10621       4.31556E-04   1.56529E-03
    35    34.105        1.3093       0.11194       4.96128E-04   1.76651E-03
    36    35.105        1.3153       0.11763       5.66896E-04   1.98258E-03
    37    36.105        1.3210       0.12329       6.44062E-04   2.21357E-03
    38    37.105        1.3265       0.12890       7.27809E-04   2.45947E-03
    39    38.105        1.3316       0.13445       8.18297E-04   2.72024E-03
    40    39.105        1.3366       0.13994       9.15664E-04   2.99578E-03
    41    40.035        1.3411       0.14499       1.01237E-03   3.26498E-03
    42    41.105        1.3459       0.15073       1.13152E-03   3.59055E-03
    43    42.105        1.3502       0.15603       1.25019E-03   3.90937E-03
    44    43.105        1.3544       0.16125       1.37612E-03   4.24217E-03
    45    44.105        1.3583       0.16639       1.50933E-03   4.58867E-03
    46    45.105        1.3622       0.17146       1.64983E-03   4.94866E-03
    47    46.105        1.3659       0.17646       1.79761E-03   5.32181E-03
    48    47.105        1.3694       0.18137       1.95265E-03   5.70776E-03
    49    48.035        1.3726       0.18587       2.10320E-03   6.07764E-03
    50    49.105        1.3760       0.19097       2.28430E-03   6.51612E-03
    51    50.105        1.3792       0.19565       2.46075E-03   6.93761E-03
    52    51.105        1.3822       0.20025       2.64416E-03   7.37007E-03
    53    52.105        1.3851       0.20477       2.83443E-03   7.81311E-03
    54    53.105        1.3880       0.20922       3.03147E-03   8.26629E-03
    55    54.105        1.3907       0.21358       3.23515E-03   8.72918E-03
    56    55.105        1.3933       0.21787       3.44536E-03   9.20127E-03
    57    56.035        1.3957       0.22179       3.64673E-03   9.64813E-03
    58    57.105        1.3983       0.22622       3.88562E-03   1.01712E-02
    59    58.105        1.4006       0.23028       4.11506E-03   1.06682E-02
    60    59.105        1.4029       0.23427       4.35024E-03   1.11725E-02
    61    60.105        1.4051       0.23818       4.59099E-03   1.16838E-02
    62    61.105        1.4072       0.24202       4.83715E-03   1.22015E-02
    63    62.105        1.4093       0.24579       5.08867E-03   1.27266E-02
    64    63.105        1.4113       0.24950       5.34538E-03   1.32580E-02
    65    64.035        1.4132       0.25287       5.58849E-03   1.37566E-02
    66    65.105        1.4151       0.25669       5.87340E-03   1.43348E-02
    67    66.105        1.4169       0.26018       6.14424E-03   1.48791E-02
    68    67.105        1.4186       0.26361       6.41942E-03   1.54272E-02
    69    68.105        1.4203       0.26698       6.69872E-03   1.59786E-02
    70    69.105        1.4220       0.27028       6.98192E-03   1.65330E-02
    71    70.105        1.4236       0.27352       7.26899E-03   1.70902E-02
    72    71.105        1.4251       0.27669       7.55957E-03   1.76497E-02
    73    72.035        1.4266       0.27958       7.83734E-03   1.81721E-02
    74    73.105        1.4280       0.28286       8.15721E-03   1.87751E-02
    75    74.105        1.4295       0.28586       8.45801E-03   1.93403E-02
    76    75.105        1.4308       0.28879       8.76115E-03   1.99066E-02
    77    76.105        1.4322       0.29167       9.06678E-03   2.04738E-02
    78    77.105        1.4334       0.29450       9.37484E-03   2.10415E-02
    79    78.105        1.4347       0.29727       9.68509E-03   2.16092E-02
    80    79.105        1.4359       0.29999       9.99727E-03   2.21766E-02
    81    80.035        1.4371       0.30246       1.02895E-02   2.27147E-02
    82    81.105        1.4382       0.30527       1.06275E-02   2.33271E-02
    83    82.105        1.4393       0.30783       1.09446E-02   2.38949E-02
    84    83.105        1.4404       0.31034       1.12630E-02   2.44600E-02
    85    84.105        1.4414       0.31281       1.15824E-02   2.50233E-02
    86    85.105        1.4424       0.31523       1.19029E-02   2.55848E-02
    87    86.105        1.4434       0.31760       1.22242E-02   2.61446E-02
    88    87.105        1.4444       0.31992       1.25461E-02   2.67023E-02
    89    88.035        1.4453       0.32204       1.28460E-02   2.72190E-02
    90    89.105        1.4462       0.32444       1.31859E-02   2.78101E-02
    91    90.105        1.4470       0.32664       1.35079E-02   2.83598E-02
    92    91.105        1.4479       0.32879       1.38323E-02   2.89067E-02
    93    92.105        1.4487       0.33090       1.41582E-02   2.94507E-02
    94    93.105        1.4495       0.33296       1.44848E-02   2.99916E-02
    95    94.105        1.4503       0.33499       1.48117E-02   3.05294E-02
    96    95.105        1.4511       0.33698       1.51376E-02   3.10636E-02
    97    96.035        1.4518       0.33879       1.54400E-02   3.15581E-02
    98    97.105        1.4525       0.34084       1.57871E-02   3.21232E-02
    99    98.105        1.4532       0.34271       1.61108E-02   3.26476E-02
   100    99.105        1.4539       0.34455       1.64335E-02   3.31641E-02
   101    99.917        1.4546       0.34601       1.66949E-02   3.35746E-02
   102    99.955        1.4547       0.34607       1.67070E-02   3.35936E-02
   103    100.00        1.4548       0.34615       1.67215E-02   3.36164E-02
